#  E (eV)   dos(E)     Int dos(E) EFermi =  10.429 eV
   5.000  0.1661E+02  0.1661E+00
   5.010  0.1703E+02  0.3364E+00
   5.020  0.1744E+02  0.5108E+00
   5.030  0.1785E+02  0.6893E+00
   5.040  0.1825E+02  0.8718E+00
   5.050  0.1864E+02  0.1058E+01
   5.060  0.1902E+02  0.1248E+01
   5.070  0.1938E+02  0.1442E+01
   5.080  0.1973E+02  0.1639E+01
   5.090  0.2007E+02  0.1840E+01
   5.100  0.2038E+02  0.2044E+01
   5.110  0.2068E+02  0.2251E+01
   5.120  0.2097E+02  0.2460E+01
   5.130  0.2123E+02  0.2673E+01
   5.140  0.2147E+02  0.2887E+01
   5.150  0.2169E+02  0.3104E+01
   5.160  0.2189E+02  0.3323E+01
   5.170  0.2207E+02  0.3544E+01
   5.180  0.2223E+02  0.3766E+01
   5.190  0.2237E+02  0.3990E+01
   5.200  0.2249E+02  0.4215E+01
   5.210  0.2259E+02  0.4441E+01
   5.220  0.2267E+02  0.4667E+01
   5.230  0.2273E+02  0.4895E+01
   5.240  0.2278E+02  0.5122E+01
   5.250  0.2281E+02  0.5351E+01
   5.260  0.2283E+02  0.5579E+01
   5.270  0.2284E+02  0.5807E+01
   5.280  0.2283E+02  0.6036E+01
   5.290  0.2282E+02  0.6264E+01
   5.300  0.2280E+02  0.6492E+01
   5.310  0.2278E+02  0.6720E+01
   5.320  0.2275E+02  0.6947E+01
   5.330  0.2272E+02  0.7174E+01
   5.340  0.2269E+02  0.7401E+01
   5.350  0.2266E+02  0.7628E+01
   5.360  0.2263E+02  0.7854E+01
   5.370  0.2260E+02  0.8080E+01
   5.380  0.2259E+02  0.8306E+01
   5.390  0.2257E+02  0.8532E+01
   5.400  0.2257E+02  0.8757E+01
   5.410  0.2257E+02  0.8983E+01
   5.420  0.2259E+02  0.9209E+01
   5.430  0.2261E+02  0.9435E+01
   5.440  0.2264E+02  0.9661E+01
   5.450  0.2269E+02  0.9888E+01
   5.460  0.2274E+02  0.1012E+02
   5.470  0.2281E+02  0.1034E+02
   5.480  0.2289E+02  0.1057E+02
   5.490  0.2298E+02  0.1080E+02
   5.500  0.2308E+02  0.1103E+02
   5.510  0.2319E+02  0.1127E+02
   5.520  0.2331E+02  0.1150E+02
   5.530  0.2344E+02  0.1173E+02
   5.540  0.2358E+02  0.1197E+02
   5.550  0.2372E+02  0.1221E+02
   5.560  0.2387E+02  0.1244E+02
   5.570  0.2403E+02  0.1268E+02
   5.580  0.2419E+02  0.1293E+02
   5.590  0.2435E+02  0.1317E+02
   5.600  0.2451E+02  0.1342E+02
   5.610  0.2467E+02  0.1366E+02
   5.620  0.2483E+02  0.1391E+02
   5.630  0.2498E+02  0.1416E+02
   5.640  0.2513E+02  0.1441E+02
   5.650  0.2527E+02  0.1466E+02
   5.660  0.2540E+02  0.1492E+02
   5.670  0.2552E+02  0.1517E+02
   5.680  0.2563E+02  0.1543E+02
   5.690  0.2572E+02  0.1569E+02
   5.700  0.2579E+02  0.1594E+02
   5.710  0.2585E+02  0.1620E+02
   5.720  0.2589E+02  0.1646E+02
   5.730  0.2591E+02  0.1672E+02
   5.740  0.2591E+02  0.1698E+02
   5.750  0.2589E+02  0.1724E+02
   5.760  0.2584E+02  0.1750E+02
   5.770  0.2577E+02  0.1776E+02
   5.780  0.2567E+02  0.1801E+02
   5.790  0.2555E+02  0.1827E+02
   5.800  0.2539E+02  0.1852E+02
   5.810  0.2522E+02  0.1877E+02
   5.820  0.2501E+02  0.1902E+02
   5.830  0.2478E+02  0.1927E+02
   5.840  0.2453E+02  0.1952E+02
   5.850  0.2425E+02  0.1976E+02
   5.860  0.2394E+02  0.2000E+02
   5.870  0.2361E+02  0.2023E+02
   5.880  0.2326E+02  0.2047E+02
   5.890  0.2288E+02  0.2070E+02
   5.900  0.2249E+02  0.2092E+02
   5.910  0.2207E+02  0.2114E+02
   5.920  0.2164E+02  0.2136E+02
   5.930  0.2120E+02  0.2157E+02
   5.940  0.2074E+02  0.2178E+02
   5.950  0.2027E+02  0.2198E+02
   5.960  0.1979E+02  0.2218E+02
   5.970  0.1930E+02  0.2237E+02
   5.980  0.1880E+02  0.2256E+02
   5.990  0.1831E+02  0.2274E+02
   6.000  0.1781E+02  0.2292E+02
   6.010  0.1731E+02  0.2309E+02
   6.020  0.1681E+02  0.2326E+02
   6.030  0.1632E+02  0.2342E+02
   6.040  0.1584E+02  0.2358E+02
   6.050  0.1536E+02  0.2374E+02
   6.060  0.1489E+02  0.2389E+02
   6.070  0.1443E+02  0.2403E+02
   6.080  0.1398E+02  0.2417E+02
   6.090  0.1354E+02  0.2431E+02
   6.100  0.1312E+02  0.2444E+02
   6.110  0.1271E+02  0.2456E+02
   6.120  0.1231E+02  0.2469E+02
   6.130  0.1193E+02  0.2481E+02
   6.140  0.1157E+02  0.2492E+02
   6.150  0.1122E+02  0.2503E+02
   6.160  0.1089E+02  0.2514E+02
   6.170  0.1058E+02  0.2525E+02
   6.180  0.1028E+02  0.2535E+02
   6.190  0.9993E+01  0.2545E+02
   6.200  0.9725E+01  0.2555E+02
   6.210  0.9472E+01  0.2564E+02
   6.220  0.9234E+01  0.2574E+02
   6.230  0.9011E+01  0.2583E+02
   6.240  0.8801E+01  0.2591E+02
   6.250  0.8604E+01  0.2600E+02
   6.260  0.8420E+01  0.2608E+02
   6.270  0.8247E+01  0.2617E+02
   6.280  0.8087E+01  0.2625E+02
   6.290  0.7937E+01  0.2633E+02
   6.300  0.7797E+01  0.2640E+02
   6.310  0.7667E+01  0.2648E+02
   6.320  0.7545E+01  0.2656E+02
   6.330  0.7432E+01  0.2663E+02
   6.340  0.7327E+01  0.2670E+02
   6.350  0.7229E+01  0.2678E+02
   6.360  0.7137E+01  0.2685E+02
   6.370  0.7052E+01  0.2692E+02
   6.380  0.6972E+01  0.2699E+02
   6.390  0.6898E+01  0.2706E+02
   6.400  0.6828E+01  0.2713E+02
   6.410  0.6763E+01  0.2719E+02
   6.420  0.6703E+01  0.2726E+02
   6.430  0.6646E+01  0.2733E+02
   6.440  0.6592E+01  0.2739E+02
   6.450  0.6542E+01  0.2746E+02
   6.460  0.6495E+01  0.2752E+02
   6.470  0.6451E+01  0.2759E+02
   6.480  0.6409E+01  0.2765E+02
   6.490  0.6370E+01  0.2772E+02
   6.500  0.6333E+01  0.2778E+02
   6.510  0.6299E+01  0.2784E+02
   6.520  0.6266E+01  0.2790E+02
   6.530  0.6235E+01  0.2797E+02
   6.540  0.6207E+01  0.2803E+02
   6.550  0.6179E+01  0.2809E+02
   6.560  0.6154E+01  0.2815E+02
   6.570  0.6130E+01  0.2821E+02
   6.580  0.6108E+01  0.2827E+02
   6.590  0.6087E+01  0.2833E+02
   6.600  0.6068E+01  0.2840E+02
   6.610  0.6050E+01  0.2846E+02
   6.620  0.6033E+01  0.2852E+02
   6.630  0.6018E+01  0.2858E+02
   6.640  0.6003E+01  0.2864E+02
   6.650  0.5990E+01  0.2870E+02
   6.660  0.5978E+01  0.2876E+02
   6.670  0.5968E+01  0.2882E+02
   6.680  0.5958E+01  0.2888E+02
   6.690  0.5949E+01  0.2894E+02
   6.700  0.5942E+01  0.2899E+02
   6.710  0.5935E+01  0.2905E+02
   6.720  0.5929E+01  0.2911E+02
   6.730  0.5925E+01  0.2917E+02
   6.740  0.5921E+01  0.2923E+02
   6.750  0.5918E+01  0.2929E+02
   6.760  0.5916E+01  0.2935E+02
   6.770  0.5915E+01  0.2941E+02
   6.780  0.5914E+01  0.2947E+02
   6.790  0.5915E+01  0.2953E+02
   6.800  0.5917E+01  0.2959E+02
   6.810  0.5920E+01  0.2965E+02
   6.820  0.5924E+01  0.2971E+02
   6.830  0.5929E+01  0.2976E+02
   6.840  0.5935E+01  0.2982E+02
   6.850  0.5943E+01  0.2988E+02
   6.860  0.5952E+01  0.2994E+02
   6.870  0.5963E+01  0.3000E+02
   6.880  0.5976E+01  0.3006E+02
   6.890  0.5991E+01  0.3012E+02
   6.900  0.6008E+01  0.3018E+02
   6.910  0.6028E+01  0.3024E+02
   6.920  0.6050E+01  0.3030E+02
   6.930  0.6075E+01  0.3036E+02
   6.940  0.6104E+01  0.3042E+02
   6.950  0.6135E+01  0.3049E+02
   6.960  0.6171E+01  0.3055E+02
   6.970  0.6210E+01  0.3061E+02
   6.980  0.6254E+01  0.3067E+02
   6.990  0.6302E+01  0.3074E+02
   7.000  0.6355E+01  0.3080E+02
   7.010  0.6414E+01  0.3086E+02
   7.020  0.6477E+01  0.3093E+02
   7.030  0.6547E+01  0.3099E+02
   7.040  0.6622E+01  0.3106E+02
   7.050  0.6704E+01  0.3113E+02
   7.060  0.6792E+01  0.3119E+02
   7.070  0.6887E+01  0.3126E+02
   7.080  0.6989E+01  0.3133E+02
   7.090  0.7098E+01  0.3140E+02
   7.100  0.7214E+01  0.3148E+02
   7.110  0.7337E+01  0.3155E+02
   7.120  0.7468E+01  0.3162E+02
   7.130  0.7607E+01  0.3170E+02
   7.140  0.7753E+01  0.3178E+02
   7.150  0.7907E+01  0.3186E+02
   7.160  0.8068E+01  0.3194E+02
   7.170  0.8236E+01  0.3202E+02
   7.180  0.8412E+01  0.3210E+02
   7.190  0.8596E+01  0.3219E+02
   7.200  0.8786E+01  0.3228E+02
   7.210  0.8983E+01  0.3237E+02
   7.220  0.9187E+01  0.3246E+02
   7.230  0.9398E+01  0.3255E+02
   7.240  0.9614E+01  0.3265E+02
   7.250  0.9837E+01  0.3275E+02
   7.260  0.1006E+02  0.3285E+02
   7.270  0.1030E+02  0.3295E+02
   7.280  0.1054E+02  0.3306E+02
   7.290  0.1078E+02  0.3316E+02
   7.300  0.1103E+02  0.3328E+02
   7.310  0.1128E+02  0.3339E+02
   7.320  0.1153E+02  0.3350E+02
   7.330  0.1179E+02  0.3362E+02
   7.340  0.1205E+02  0.3374E+02
   7.350  0.1231E+02  0.3386E+02
   7.360  0.1258E+02  0.3399E+02
   7.370  0.1284E+02  0.3412E+02
   7.380  0.1311E+02  0.3425E+02
   7.390  0.1338E+02  0.3438E+02
   7.400  0.1365E+02  0.3452E+02
   7.410  0.1392E+02  0.3466E+02
   7.420  0.1419E+02  0.3480E+02
   7.430  0.1446E+02  0.3495E+02
   7.440  0.1472E+02  0.3509E+02
   7.450  0.1499E+02  0.3524E+02
   7.460  0.1525E+02  0.3540E+02
   7.470  0.1552E+02  0.3555E+02
   7.480  0.1578E+02  0.3571E+02
   7.490  0.1603E+02  0.3587E+02
   7.500  0.1629E+02  0.3603E+02
   7.510  0.1654E+02  0.3620E+02
   7.520  0.1679E+02  0.3637E+02
   7.530  0.1703E+02  0.3654E+02
   7.540  0.1727E+02  0.3671E+02
   7.550  0.1751E+02  0.3688E+02
   7.560  0.1774E+02  0.3706E+02
   7.570  0.1796E+02  0.3724E+02
   7.580  0.1818E+02  0.3742E+02
   7.590  0.1839E+02  0.3761E+02
   7.600  0.1860E+02  0.3779E+02
   7.610  0.1880E+02  0.3798E+02
   7.620  0.1899E+02  0.3817E+02
   7.630  0.1917E+02  0.3836E+02
   7.640  0.1935E+02  0.3856E+02
   7.650  0.1952E+02  0.3875E+02
   7.660  0.1968E+02  0.3895E+02
   7.670  0.1983E+02  0.3915E+02
   7.680  0.1997E+02  0.3935E+02
   7.690  0.2010E+02  0.3955E+02
   7.700  0.2023E+02  0.3975E+02
   7.710  0.2034E+02  0.3995E+02
   7.720  0.2045E+02  0.4016E+02
   7.730  0.2055E+02  0.4036E+02
   7.740  0.2063E+02  0.4057E+02
   7.750  0.2071E+02  0.4078E+02
   7.760  0.2078E+02  0.4098E+02
   7.770  0.2084E+02  0.4119E+02
   7.780  0.2090E+02  0.4140E+02
   7.790  0.2094E+02  0.4161E+02
   7.800  0.2098E+02  0.4182E+02
   7.810  0.2102E+02  0.4203E+02
   7.820  0.2104E+02  0.4224E+02
   7.830  0.2107E+02  0.4245E+02
   7.840  0.2109E+02  0.4266E+02
   7.850  0.2110E+02  0.4287E+02
   7.860  0.2112E+02  0.4308E+02
   7.870  0.2114E+02  0.4330E+02
   7.880  0.2115E+02  0.4351E+02
   7.890  0.2117E+02  0.4372E+02
   7.900  0.2119E+02  0.4393E+02
   7.910  0.2122E+02  0.4414E+02
   7.920  0.2126E+02  0.4436E+02
   7.930  0.2130E+02  0.4457E+02
   7.940  0.2135E+02  0.4478E+02
   7.950  0.2141E+02  0.4500E+02
   7.960  0.2148E+02  0.4521E+02
   7.970  0.2156E+02  0.4543E+02
   7.980  0.2166E+02  0.4564E+02
   7.990  0.2178E+02  0.4586E+02
   8.000  0.2191E+02  0.4608E+02
   8.010  0.2205E+02  0.4630E+02
   8.020  0.2222E+02  0.4652E+02
   8.030  0.2240E+02  0.4675E+02
   8.040  0.2260E+02  0.4697E+02
   8.050  0.2283E+02  0.4720E+02
   8.060  0.2307E+02  0.4743E+02
   8.070  0.2333E+02  0.4766E+02
   8.080  0.2361E+02  0.4790E+02
   8.090  0.2391E+02  0.4814E+02
   8.100  0.2423E+02  0.4838E+02
   8.110  0.2457E+02  0.4863E+02
   8.120  0.2492E+02  0.4888E+02
   8.130  0.2529E+02  0.4913E+02
   8.140  0.2568E+02  0.4939E+02
   8.150  0.2608E+02  0.4965E+02
   8.160  0.2649E+02  0.4991E+02
   8.170  0.2691E+02  0.5018E+02
   8.180  0.2734E+02  0.5046E+02
   8.190  0.2778E+02  0.5073E+02
   8.200  0.2822E+02  0.5102E+02
   8.210  0.2866E+02  0.5130E+02
   8.220  0.2910E+02  0.5159E+02
   8.230  0.2954E+02  0.5189E+02
   8.240  0.2997E+02  0.5219E+02
   8.250  0.3040E+02  0.5249E+02
   8.260  0.3082E+02  0.5280E+02
   8.270  0.3123E+02  0.5311E+02
   8.280  0.3163E+02  0.5343E+02
   8.290  0.3201E+02  0.5375E+02
   8.300  0.3237E+02  0.5407E+02
   8.310  0.3272E+02  0.5440E+02
   8.320  0.3305E+02  0.5473E+02
   8.330  0.3336E+02  0.5506E+02
   8.340  0.3364E+02  0.5540E+02
   8.350  0.3390E+02  0.5574E+02
   8.360  0.3414E+02  0.5608E+02
   8.370  0.3436E+02  0.5642E+02
   8.380  0.3456E+02  0.5677E+02
   8.390  0.3473E+02  0.5712E+02
   8.400  0.3487E+02  0.5747E+02
   8.410  0.3500E+02  0.5782E+02
   8.420  0.3510E+02  0.5817E+02
   8.430  0.3519E+02  0.5852E+02
   8.440  0.3525E+02  0.5887E+02
   8.450  0.3530E+02  0.5922E+02
   8.460  0.3533E+02  0.5958E+02
   8.470  0.3534E+02  0.5993E+02
   8.480  0.3534E+02  0.6028E+02
   8.490  0.3533E+02  0.6064E+02
   8.500  0.3530E+02  0.6099E+02
   8.510  0.3527E+02  0.6134E+02
   8.520  0.3523E+02  0.6170E+02
   8.530  0.3518E+02  0.6205E+02
   8.540  0.3513E+02  0.6240E+02
   8.550  0.3508E+02  0.6275E+02
   8.560  0.3503E+02  0.6310E+02
   8.570  0.3497E+02  0.6345E+02
   8.580  0.3491E+02  0.6380E+02
   8.590  0.3486E+02  0.6415E+02
   8.600  0.3481E+02  0.6450E+02
   8.610  0.3475E+02  0.6484E+02
   8.620  0.3470E+02  0.6519E+02
   8.630  0.3465E+02  0.6554E+02
   8.640  0.3461E+02  0.6588E+02
   8.650  0.3456E+02  0.6623E+02
   8.660  0.3451E+02  0.6657E+02
   8.670  0.3446E+02  0.6692E+02
   8.680  0.3441E+02  0.6726E+02
   8.690  0.3436E+02  0.6761E+02
   8.700  0.3430E+02  0.6795E+02
   8.710  0.3423E+02  0.6829E+02
   8.720  0.3416E+02  0.6863E+02
   8.730  0.3407E+02  0.6897E+02
   8.740  0.3397E+02  0.6931E+02
   8.750  0.3386E+02  0.6965E+02
   8.760  0.3373E+02  0.6999E+02
   8.770  0.3359E+02  0.7032E+02
   8.780  0.3342E+02  0.7066E+02
   8.790  0.3323E+02  0.7099E+02
   8.800  0.3302E+02  0.7132E+02
   8.810  0.3278E+02  0.7165E+02
   8.820  0.3252E+02  0.7197E+02
   8.830  0.3223E+02  0.7230E+02
   8.840  0.3191E+02  0.7262E+02
   8.850  0.3156E+02  0.7293E+02
   8.860  0.3118E+02  0.7324E+02
   8.870  0.3077E+02  0.7355E+02
   8.880  0.3033E+02  0.7385E+02
   8.890  0.2985E+02  0.7415E+02
   8.900  0.2935E+02  0.7445E+02
   8.910  0.2882E+02  0.7473E+02
   8.920  0.2826E+02  0.7502E+02
   8.930  0.2767E+02  0.7529E+02
   8.940  0.2705E+02  0.7556E+02
   8.950  0.2641E+02  0.7583E+02
   8.960  0.2575E+02  0.7609E+02
   8.970  0.2507E+02  0.7634E+02
   8.980  0.2436E+02  0.7658E+02
   8.990  0.2364E+02  0.7682E+02
   9.000  0.2291E+02  0.7705E+02
   9.010  0.2216E+02  0.7727E+02
   9.020  0.2141E+02  0.7748E+02
   9.030  0.2065E+02  0.7769E+02
   9.040  0.1988E+02  0.7789E+02
   9.050  0.1911E+02  0.7808E+02
   9.060  0.1835E+02  0.7826E+02
   9.070  0.1759E+02  0.7844E+02
   9.080  0.1684E+02  0.7861E+02
   9.090  0.1609E+02  0.7877E+02
   9.100  0.1536E+02  0.7892E+02
   9.110  0.1464E+02  0.7907E+02
   9.120  0.1394E+02  0.7921E+02
   9.130  0.1326E+02  0.7934E+02
   9.140  0.1260E+02  0.7946E+02
   9.150  0.1196E+02  0.7958E+02
   9.160  0.1134E+02  0.7970E+02
   9.170  0.1075E+02  0.7980E+02
   9.180  0.1019E+02  0.7991E+02
   9.190  0.9658E+01  0.8000E+02
   9.200  0.9154E+01  0.8009E+02
   9.210  0.8681E+01  0.8018E+02
   9.220  0.8238E+01  0.8026E+02
   9.230  0.7827E+01  0.8034E+02
   9.240  0.7449E+01  0.8042E+02
   9.250  0.7104E+01  0.8049E+02
   9.260  0.6792E+01  0.8056E+02
   9.270  0.6513E+01  0.8062E+02
   9.280  0.6268E+01  0.8068E+02
   9.290  0.6057E+01  0.8074E+02
   9.300  0.5879E+01  0.8080E+02
   9.310  0.5734E+01  0.8086E+02
   9.320  0.5623E+01  0.8092E+02
   9.330  0.5545E+01  0.8097E+02
   9.340  0.5500E+01  0.8103E+02
   9.350  0.5486E+01  0.8108E+02
   9.360  0.5505E+01  0.8114E+02
   9.370  0.5556E+01  0.8119E+02
   9.380  0.5637E+01  0.8125E+02
   9.390  0.5748E+01  0.8131E+02
   9.400  0.5890E+01  0.8137E+02
   9.410  0.6060E+01  0.8143E+02
   9.420  0.6259E+01  0.8149E+02
   9.430  0.6485E+01  0.8155E+02
   9.440  0.6737E+01  0.8162E+02
   9.450  0.7015E+01  0.8169E+02
   9.460  0.7317E+01  0.8176E+02
   9.470  0.7643E+01  0.8184E+02
   9.480  0.7991E+01  0.8192E+02
   9.490  0.8359E+01  0.8200E+02
   9.500  0.8747E+01  0.8209E+02
   9.510  0.9153E+01  0.8218E+02
   9.520  0.9575E+01  0.8228E+02
   9.530  0.1001E+02  0.8238E+02
   9.540  0.1046E+02  0.8248E+02
   9.550  0.1092E+02  0.8259E+02
   9.560  0.1139E+02  0.8271E+02
   9.570  0.1187E+02  0.8283E+02
   9.580  0.1236E+02  0.8295E+02
   9.590  0.1284E+02  0.8308E+02
   9.600  0.1333E+02  0.8321E+02
   9.610  0.1382E+02  0.8335E+02
   9.620  0.1431E+02  0.8349E+02
   9.630  0.1479E+02  0.8364E+02
   9.640  0.1527E+02  0.8379E+02
   9.650  0.1574E+02  0.8395E+02
   9.660  0.1620E+02  0.8411E+02
   9.670  0.1665E+02  0.8428E+02
   9.680  0.1709E+02  0.8445E+02
   9.690  0.1751E+02  0.8462E+02
   9.700  0.1791E+02  0.8480E+02
   9.710  0.1830E+02  0.8499E+02
   9.720  0.1867E+02  0.8517E+02
   9.730  0.1903E+02  0.8536E+02
   9.740  0.1936E+02  0.8556E+02
   9.750  0.1967E+02  0.8575E+02
   9.760  0.1996E+02  0.8595E+02
   9.770  0.2023E+02  0.8616E+02
   9.780  0.2048E+02  0.8636E+02
   9.790  0.2071E+02  0.8657E+02
   9.800  0.2091E+02  0.8678E+02
   9.810  0.2110E+02  0.8699E+02
   9.820  0.2126E+02  0.8720E+02
   9.830  0.2140E+02  0.8741E+02
   9.840  0.2152E+02  0.8763E+02
   9.850  0.2162E+02  0.8785E+02
   9.860  0.2170E+02  0.8806E+02
   9.870  0.2176E+02  0.8828E+02
   9.880  0.2181E+02  0.8850E+02
   9.890  0.2183E+02  0.8872E+02
   9.900  0.2184E+02  0.8894E+02
   9.910  0.2184E+02  0.8915E+02
   9.920  0.2182E+02  0.8937E+02
   9.930  0.2179E+02  0.8959E+02
   9.940  0.2174E+02  0.8981E+02
   9.950  0.2169E+02  0.9002E+02
   9.960  0.2162E+02  0.9024E+02
   9.970  0.2154E+02  0.9046E+02
   9.980  0.2145E+02  0.9067E+02
   9.990  0.2136E+02  0.9088E+02
  10.000  0.2125E+02  0.9110E+02
  10.010  0.2114E+02  0.9131E+02
  10.020  0.2102E+02  0.9152E+02
  10.030  0.2090E+02  0.9173E+02
  10.040  0.2077E+02  0.9193E+02
  10.050  0.2063E+02  0.9214E+02
  10.060  0.2049E+02  0.9235E+02
  10.070  0.2035E+02  0.9255E+02
  10.080  0.2020E+02  0.9275E+02
  10.090  0.2004E+02  0.9295E+02
  10.100  0.1989E+02  0.9315E+02
  10.110  0.1973E+02  0.9335E+02
  10.120  0.1956E+02  0.9354E+02
  10.130  0.1940E+02  0.9374E+02
  10.140  0.1923E+02  0.9393E+02
  10.150  0.1906E+02  0.9412E+02
  10.160  0.1888E+02  0.9431E+02
  10.170  0.1871E+02  0.9450E+02
  10.180  0.1853E+02  0.9468E+02
  10.190  0.1835E+02  0.9486E+02
  10.200  0.1817E+02  0.9505E+02
  10.210  0.1798E+02  0.9523E+02
  10.220  0.1779E+02  0.9540E+02
  10.230  0.1761E+02  0.9558E+02
  10.240  0.1742E+02  0.9575E+02
  10.250  0.1723E+02  0.9593E+02
  10.260  0.1703E+02  0.9610E+02
  10.270  0.1684E+02  0.9627E+02
  10.280  0.1665E+02  0.9643E+02
  10.290  0.1645E+02  0.9660E+02
  10.300  0.1626E+02  0.9676E+02
  10.310  0.1606E+02  0.9692E+02
  10.320  0.1586E+02  0.9708E+02
  10.330  0.1567E+02  0.9724E+02
  10.340  0.1547E+02  0.9739E+02
  10.350  0.1528E+02  0.9754E+02
  10.360  0.1508E+02  0.9769E+02
  10.370  0.1489E+02  0.9784E+02
  10.380  0.1469E+02  0.9799E+02
  10.390  0.1450E+02  0.9813E+02
  10.400  0.1431E+02  0.9828E+02
  10.410  0.1412E+02  0.9842E+02
  10.420  0.1392E+02  0.9856E+02
  10.430  0.1373E+02  0.9869E+02
  10.440  0.1354E+02  0.9883E+02
  10.450  0.1335E+02  0.9896E+02
  10.460  0.1316E+02  0.9910E+02
  10.470  0.1298E+02  0.9923E+02
  10.480  0.1279E+02  0.9935E+02
  10.490  0.1260E+02  0.9948E+02
  10.500  0.1241E+02  0.9960E+02
  10.510  0.1222E+02  0.9973E+02
  10.520  0.1202E+02  0.9985E+02
  10.530  0.1183E+02  0.9996E+02
  10.540  0.1163E+02  0.1001E+03
  10.550  0.1144E+02  0.1002E+03
  10.560  0.1124E+02  0.1003E+03
  10.570  0.1104E+02  0.1004E+03
  10.580  0.1083E+02  0.1005E+03
  10.590  0.1062E+02  0.1006E+03
  10.600  0.1041E+02  0.1007E+03
  10.610  0.1019E+02  0.1008E+03
  10.620  0.9975E+01  0.1009E+03
  10.630  0.9752E+01  0.1010E+03
  10.640  0.9526E+01  0.1011E+03
  10.650  0.9295E+01  0.1012E+03
  10.660  0.9061E+01  0.1013E+03
  10.670  0.8824E+01  0.1014E+03
  10.680  0.8583E+01  0.1015E+03
  10.690  0.8339E+01  0.1016E+03
  10.700  0.8092E+01  0.1017E+03
  10.710  0.7843E+01  0.1017E+03
  10.720  0.7592E+01  0.1018E+03
  10.730  0.7339E+01  0.1019E+03
  10.740  0.7086E+01  0.1020E+03
  10.750  0.6832E+01  0.1020E+03
  10.760  0.6579E+01  0.1021E+03
  10.770  0.6327E+01  0.1021E+03
  10.780  0.6077E+01  0.1022E+03
  10.790  0.5829E+01  0.1023E+03
  10.800  0.5585E+01  0.1023E+03
  10.810  0.5345E+01  0.1024E+03
  10.820  0.5109E+01  0.1024E+03
  10.830  0.4879E+01  0.1025E+03
  10.840  0.4656E+01  0.1025E+03
  10.850  0.4439E+01  0.1026E+03
  10.860  0.4230E+01  0.1026E+03
  10.870  0.4030E+01  0.1027E+03
  10.880  0.3838E+01  0.1027E+03
  10.890  0.3657E+01  0.1027E+03
  10.900  0.3485E+01  0.1028E+03
  10.910  0.3323E+01  0.1028E+03
  10.920  0.3173E+01  0.1028E+03
  10.930  0.3034E+01  0.1029E+03
  10.940  0.2906E+01  0.1029E+03
  10.950  0.2790E+01  0.1029E+03
  10.960  0.2686E+01  0.1029E+03
  10.970  0.2593E+01  0.1030E+03
  10.980  0.2512E+01  0.1030E+03
  10.990  0.2443E+01  0.1030E+03
  11.000  0.2386E+01  0.1030E+03
  11.010  0.2339E+01  0.1031E+03
  11.020  0.2304E+01  0.1031E+03
  11.030  0.2279E+01  0.1031E+03
